SpectraSuite Data File
++++++++++++++++++++++++++++++++++++
Date: Wed Apr 05 11:35:48 EDT 2017
User: manoharanlab
Dark Spectrum Present: No
Reference Spectrum Present: No
Number of Sampled Component Spectra: 1
Spectrometers: HR+C0212
Integration Time (usec): 5000000 (HR+C0212)
Spectra Averaged: 1 (HR+C0212)
Boxcar Smoothing: 0 (HR+C0212)
Correct for Electrical Dark: No (HR+C0212)
Strobe/Lamp Enabled: No (HR+C0212)
Correct for Detector Non-linearity: No (HR+C0212)
Correct for Stray Light: No (HR+C0212)
Number of Pixels in Processed Spectrum: 2048
>>>>>Begin Processed Spectral Data<<<<<
188.35	1631.00
188.83	1578.00
189.30	1579.00
189.77	1576.00
190.25	1572.00
190.72	1985.00
191.20	1678.00
191.67	1763.00
192.14	1637.00
192.62	1610.00
193.09	1661.00
193.57	1653.00
194.04	1808.00
194.51	1647.00
194.99	1985.00
195.46	1649.00
195.94	1740.00
196.41	1659.00
196.88	1760.00
197.36	1708.00
197.83	2349.00
198.30	1689.00
198.78	1842.00
199.25	1678.00
199.72	1645.00
200.20	1649.00
200.67	1678.00
201.15	1676.00
201.62	1717.00
202.09	1805.00
202.57	1793.00
203.04	1714.00
203.51	1706.00
203.99	1698.00
204.46	1678.00
204.93	1759.00
205.41	1689.00
205.88	1699.00
206.35	1885.00
206.83	1686.00
207.30	1789.00
207.77	1710.00
208.24	1771.00
208.72	1762.00
209.19	1680.00
209.66	1738.00
210.14	1939.00
210.61	1795.00
211.08	2574.00
211.56	1751.00
212.03	1686.00
212.50	2232.00
212.97	1810.00
213.45	1799.00
213.92	1876.00
214.39	1666.00
214.87	1675.00
215.34	1702.00
215.81	1716.00
216.28	1661.00
216.76	1665.00
217.23	1992.00
217.70	1911.00
218.17	1775.00
218.65	1783.00
219.12	1685.00
219.59	1661.00
220.06	1759.00
220.54	3898.00
221.01	1868.00
221.48	1658.00
221.95	1655.00
222.43	1630.00
222.90	1788.00
223.37	1756.00
223.84	1761.00
224.31	1692.00
224.79	1673.00
225.26	1742.00
225.73	1935.00
226.20	1770.00
226.68	1684.00
227.15	1680.00
227.62	1683.00
228.09	1774.00
228.56	1706.00
229.04	1655.00
229.51	1914.00
229.98	1678.00
230.45	1660.00
230.92	1678.00
231.39	1687.00
231.87	1832.00
232.34	1700.00
232.81	1671.00
233.28	1656.00
233.75	1768.00
234.22	1666.00
234.70	1955.00
235.17	1690.00
235.64	1866.00
236.11	1672.00
236.58	1808.00
237.05	1648.00
237.53	1780.00
238.00	1700.00
238.47	2447.00
238.94	2149.00
239.41	1714.00
239.88	1744.00
240.35	1655.00
240.83	1841.00
241.30	1720.00
241.77	1692.00
242.24	1697.00
242.71	1684.00
243.18	1934.00
243.65	1692.00
244.12	1666.00
244.59	1651.00
245.07	1757.00
245.54	1701.00
246.01	1639.00
246.48	1665.00
246.95	1764.00
247.42	1766.00
247.89	1704.00
248.36	1776.00
248.83	1688.00
249.30	1653.00
249.77	1780.00
250.25	1700.00
250.72	1673.00
251.19	3140.00
251.66	1870.00
252.13	1671.00
252.60	1664.00
253.07	1726.00
253.54	1691.00
254.01	1710.00
254.48	1748.00
254.95	1754.00
255.42	1680.00
255.89	1648.00
256.36	1737.00
256.83	1678.00
257.30	1654.00
257.77	1732.00
258.24	1669.00
258.72	1660.00
259.19	1851.00
259.66	1684.00
260.13	1642.00
260.60	1902.00
261.07	1853.00
261.54	1635.00
262.01	1808.00
262.48	1740.00
262.95	1675.00
263.42	1641.00
263.89	1676.00
264.36	1680.00
264.83	1664.00
265.30	1781.00
265.77	1898.00
266.24	1684.00
266.71	2032.00
267.18	1687.00
267.65	1705.00
268.12	1674.00
268.59	1835.00
269.06	1662.00
269.52	1645.00
269.99	1681.00
270.46	1733.00
270.93	1733.00
271.40	1822.00
271.87	1673.00
272.34	1682.00
272.81	1763.00
273.28	1860.00
273.75	1801.00
274.22	1694.00
274.69	1654.00
275.16	1637.00
275.63	1742.00
276.10	1683.00
276.57	1811.00
277.04	1677.00
277.51	1646.00
277.97	1756.00
278.44	1664.00
278.91	1794.00
279.38	1684.00
279.85	1772.00
280.32	1706.00
280.79	1648.00
281.26	1842.00
281.73	1660.00
282.20	1650.00
282.67	1658.00
283.13	1663.00
283.60	1655.00
284.07	1678.00
284.54	1646.00
285.01	1664.00
285.48	2335.00
285.95	1708.00
286.42	1665.00
286.89	1723.00
287.35	1655.00
287.82	1675.00
288.29	1691.00
288.76	1668.00
289.23	1682.00
289.70	1785.00
290.17	1705.00
290.63	1735.00
291.10	1656.00
291.57	1638.00
292.04	1670.00
292.51	1668.00
292.98	1848.00
293.44	1699.00
293.91	1650.00
294.38	1664.00
294.85	1718.00
295.32	1749.00
295.79	1729.00
296.25	1683.00
296.72	1639.00
297.19	2478.00
297.66	1759.00
298.13	1778.00
298.59	1652.00
299.06	1759.00
299.53	1713.00
300.00	2590.00
300.47	1755.00
300.93	1729.00
301.40	1738.00
301.87	1661.00
302.34	1642.00
302.81	1641.00
303.27	1654.00
303.74	1670.00
304.21	1648.00
304.68	1672.00
305.14	1754.00
305.61	1751.00
306.08	1660.00
306.55	1927.00
307.02	1668.00
307.48	1776.00
307.95	1659.00
308.42	1686.00
308.89	1642.00
309.35	1736.00
309.82	1874.00
310.29	1716.00
310.76	1648.00
311.22	1729.00
311.69	1687.00
312.16	1625.00
312.62	1759.00
313.09	1661.00
313.56	1644.00
314.03	1773.00
314.49	1648.00
314.96	1751.00
315.43	1649.00
315.89	1721.00
316.36	1671.00
316.83	1657.00
317.30	1672.00
317.76	1712.00
318.23	1656.00
318.70	1672.00
319.16	1654.00
319.63	1671.00
320.10	1649.00
320.56	1672.00
321.03	1755.00
321.50	1811.00
321.96	1669.00
322.43	1672.00
322.90	1654.00
323.36	1649.00
323.83	1652.00
324.30	1657.00
324.76	1650.00
325.23	1748.00
325.70	1706.00
326.16	1744.00
326.63	1738.00
327.10	2685.00
327.56	1732.00
328.03	1746.00
328.50	1822.00
328.96	1661.00
329.43	1648.00
329.90	1677.00
330.36	1728.00
330.83	1793.00
331.29	1658.00
331.76	2182.00
332.23	1848.00
332.69	2732.00
333.16	1749.00
333.62	1662.00
334.09	1708.00
334.56	1670.00
335.02	1661.00
335.49	1647.00
335.95	1673.00
336.42	1640.00
336.89	1682.00
337.35	1747.00
337.82	1886.00
338.28	1934.00
338.75	1794.00
339.22	1678.00
339.68	2007.00
340.15	1686.00
340.61	1653.00
341.08	1648.00
341.54	1650.00
342.01	1722.00
342.48	1679.00
342.94	1652.00
343.41	1627.00
343.87	1642.00
344.34	1678.00
344.80	1845.00
345.27	1704.00
345.73	1836.00
346.20	10624.00
346.66	2148.00
347.13	1662.00
347.59	1644.00
348.06	1668.00
348.53	1858.00
348.99	1805.00
349.46	1755.00
349.92	1665.00
350.39	1816.00
350.85	1741.00
351.32	1768.00
351.78	1679.00
352.25	1718.00
352.71	1728.00
353.18	1668.00
353.64	1666.00
354.11	1662.00
354.57	1704.00
355.04	1714.00
355.50	1733.00
355.97	1651.00
356.43	1755.00
356.90	1665.00
357.36	2080.00
357.82	1661.00
358.29	1664.00
358.75	1650.00
359.22	1641.00
359.68	1646.00
360.15	1674.00
360.61	1736.00
361.08	1838.00
361.54	1959.00
362.01	1664.00
362.47	1659.00
362.93	1623.00
363.40	1638.00
363.86	1783.00
364.33	1669.00
364.79	1691.00
365.26	1708.00
365.72	1654.00
366.19	1742.00
366.65	1754.00
367.11	1815.00
367.58	1795.00
368.04	1767.00
368.51	1841.00
368.97	1682.00
369.43	1720.00
369.90	1655.00
370.36	1709.00
370.83	1867.00
371.29	1700.00
371.75	2708.00
372.22	1974.00
372.68	1653.00
373.15	2636.00
373.61	1744.00
374.07	1698.00
374.54	1629.00
375.00	1677.00
375.46	1666.00
375.93	1669.00
376.39	1636.00
376.86	1679.00
377.32	1748.00
377.78	1761.00
378.25	1681.00
378.71	1724.00
379.17	1661.00
379.64	1841.00
380.10	1720.00
380.56	2170.00
381.03	2186.00
381.49	1905.00
381.95	1685.00
382.42	5514.00
382.88	1896.00
383.34	1692.00
383.81	1659.00
384.27	1689.00
384.73	1797.00
385.20	1692.00
385.66	1681.00
386.12	1730.00
386.59	1697.00
387.05	1657.00
387.51	1657.00
387.97	1663.00
388.44	2411.00
388.90	1733.00
389.36	1772.00
389.83	1661.00
390.29	1684.00
390.75	1738.00
391.21	1662.00
391.68	1718.00
392.14	2658.00
392.60	1986.00
393.07	1788.00
393.53	1710.00
393.99	1692.00
394.45	2195.00
394.92	1801.00
395.38	1775.00
395.84	1780.00
396.30	1672.00
396.77	1680.00
397.23	1848.00
397.69	1860.00
398.15	1792.00
398.62	1893.00
399.08	1776.00
399.54	1839.00
400.00	1816.00
400.46	1692.00
400.93	1673.00
401.39	1789.00
401.85	1784.00
402.31	1692.00
402.78	1689.00
403.24	1829.00
403.70	1809.00
404.16	1727.00
404.62	2896.00
405.09	2104.00
405.55	1746.00
406.01	1783.00
406.47	1734.00
406.93	1706.00
407.40	1738.00
407.86	1691.00
408.32	1807.00
408.78	1771.00
409.24	1809.00
409.70	1896.00
410.17	1779.00
410.63	1734.00
411.09	1774.00
411.55	1733.00
412.01	1801.00
412.47	1918.00
412.94	1925.00
413.40	1927.00
413.86	1752.00
414.32	1712.00
414.78	1715.00
415.24	1714.00
415.71	1752.00
416.17	1712.00
416.63	1735.00
417.09	1727.00
417.55	1717.00
418.01	2146.00
418.47	1768.00
418.93	1812.00
419.40	1771.00
419.86	1748.00
420.32	1991.00
420.78	1817.00
421.24	1827.00
421.70	1775.00
422.16	1795.00
422.62	1808.00
423.08	2082.00
423.54	1834.00
424.01	1872.00
424.47	1752.00
424.93	1833.00
425.39	2497.00
425.85	1843.00
426.31	1800.00
426.77	1977.00
427.23	1889.00
427.69	1891.00
428.15	1824.00
428.61	1942.00
429.07	2007.00
429.53	1773.00
430.00	1805.00
430.46	1801.00
430.92	1783.00
431.38	1894.00
431.84	1930.00
432.30	1838.00
432.76	1896.00
433.22	1832.00
433.68	2088.00
434.14	1871.00
434.60	2020.00
435.06	1853.00
435.52	1910.00
435.98	1827.00
436.44	1908.00
436.90	1843.00
437.36	1927.00
437.82	2228.00
438.28	1997.00
438.74	1901.00
439.20	1887.00
439.66	1868.00
440.12	1858.00
440.58	1952.00
441.04	1907.00
441.50	1874.00
441.96	1888.00
442.42	1907.00
442.88	2004.00
443.34	1898.00
443.80	1869.00
444.26	1989.00
444.72	1889.00
445.18	1975.00
445.64	1973.00
446.10	1911.00
446.56	1917.00
447.02	1932.00
447.48	1956.00
447.94	2040.00
448.40	2102.00
448.86	2249.00
449.32	1927.00
449.77	1985.00
450.23	2354.00
450.69	2039.00
451.15	2040.00
451.61	1970.00
452.07	1962.00
452.53	2149.00
452.99	2036.00
453.45	2625.00
453.91	2190.00
454.37	2198.00
454.83	2087.00
455.29	2029.00
455.74	2003.00
456.20	2081.00
456.66	2087.00
457.12	2009.00
457.58	2051.00
458.04	2043.00
458.50	2062.00
458.96	2020.00
459.42	2132.00
459.88	2042.00
460.33	2068.00
460.79	2070.00
461.25	2028.00
461.71	2322.00
462.17	2221.00
462.63	2098.00
463.09	2195.00
463.54	2118.00
464.00	2116.00
464.46	2294.00
464.92	2270.00
465.38	2438.00
465.84	2187.00
466.30	2178.00
466.75	2212.00
467.21	2226.00
467.67	2284.00
468.13	2237.00
468.59	2435.00
469.05	2357.00
469.50	2396.00
469.96	2378.00
470.42	2397.00
470.88	2358.00
471.34	2344.00
471.80	2371.00
472.25	2419.00
472.71	2388.00
473.17	2525.00
473.63	2743.00
474.09	2490.00
474.54	2550.00
475.00	2474.00
475.46	2573.00
475.92	2630.00
476.38	2566.00
476.83	2571.00
477.29	2576.00
477.75	3208.00
478.21	2808.00
478.66	2639.00
479.12	2682.00
479.58	2631.00
480.04	3849.00
480.50	3031.00
480.95	3853.00
481.41	2988.00
481.87	3674.00
482.33	2907.00
482.78	2879.00
483.24	3527.00
483.70	2962.00
484.16	2960.00
484.61	3004.00
485.07	3080.00
485.53	3650.00
485.98	3144.00
486.44	3038.00
486.90	3097.00
487.36	3166.00
487.81	3209.00
488.27	3353.00
488.73	3179.00
489.18	3203.00
489.64	3494.00
490.10	3238.00
490.56	3246.00
491.01	3392.00
491.47	3330.00
491.93	3255.00
492.38	3323.00
492.84	3496.00
493.30	3370.00
493.75	3475.00
494.21	3413.00
494.67	3451.00
495.13	3500.00
495.58	3491.00
496.04	3498.00
496.50	3773.00
496.95	3649.00
497.41	3551.00
497.87	3647.00
498.32	3692.00
498.78	3868.00
499.23	3640.00
499.69	3701.00
500.15	3641.00
500.60	3683.00
501.06	3707.00
501.52	4741.00
501.97	3890.00
502.43	3773.00
502.89	3758.00
503.34	3782.00
503.80	3795.00
504.25	3852.00
504.71	3828.00
505.17	3850.00
505.62	3862.00
506.08	4004.00
506.54	3847.00
506.99	4327.00
507.45	4022.00
507.90	4025.00
508.36	3923.00
508.82	4117.00
509.27	4043.00
509.73	4002.00
510.18	3984.00
510.64	3969.00
511.10	3980.00
511.55	4014.00
512.01	4240.00
512.46	4047.00
512.92	4102.00
513.37	4116.00
513.83	4210.00
514.29	4144.00
514.74	4168.00
515.20	4170.00
515.65	4254.00
516.11	4152.00
516.56	4191.00
517.02	4548.00
517.47	4252.00
517.93	4222.00
518.39	4403.00
518.84	4261.00
519.30	4243.00
519.75	4329.00
520.21	4281.00
520.66	4361.00
521.12	4275.00
521.57	4252.00
522.03	4325.00
522.48	4358.00
522.94	4496.00
523.39	4375.00
523.85	4566.00
524.30	4497.00
524.76	4337.00
525.21	4355.00
525.67	4488.00
526.12	4800.00
526.58	4572.00
527.03	4421.00
527.49	4399.00
527.94	4512.00
528.40	4618.00
528.85	4752.00
529.31	4445.00
529.76	4457.00
530.22	4446.00
530.67	4537.00
531.13	4499.00
531.58	4607.00
532.03	4599.00
532.49	4808.00
532.94	4658.00
533.40	4592.00
533.85	4632.00
534.31	4506.00
534.76	4546.00
535.22	4614.00
535.67	4695.00
536.12	4595.00
536.58	4666.00
537.03	4727.00
537.49	5189.00
537.94	5297.00
538.40	4717.00
538.85	4593.00
539.30	4618.00
539.76	4622.00
540.21	4636.00
540.67	5325.00
541.12	4700.00
541.58	4643.00
542.03	4694.00
542.48	4679.00
542.94	4762.00
543.39	4742.00
543.84	5540.00
544.30	5024.00
544.75	4731.00
545.21	4870.00
545.66	4785.00
546.11	4842.00
546.57	4766.00
547.02	4780.00
547.48	4910.00
547.93	5062.00
548.38	4894.00
548.84	5110.00
549.29	4837.00
549.74	4876.00
550.20	4986.00
550.65	4815.00
551.10	4879.00
551.56	4900.00
552.01	4817.00
552.46	4775.00
552.92	4908.00
553.37	5408.00
553.82	4834.00
554.28	4970.00
554.73	4777.00
555.18	4995.00
555.64	4890.00
556.09	4765.00
556.54	4758.00
557.00	4805.00
557.45	4727.00
557.90	5612.00
558.36	5138.00
558.81	4814.00
559.26	4850.00
559.71	4908.00
560.17	4732.00
560.62	4786.00
561.07	4698.00
561.53	4757.00
561.98	4764.00
562.43	4694.00
562.88	4852.00
563.34	5311.00
563.79	4763.00
564.24	4732.00
564.70	4899.00
565.15	5012.00
565.60	4703.00
566.05	4678.00
566.51	4718.00
566.96	4649.00
567.41	4684.00
567.86	4768.00
568.32	4700.00
568.77	4701.00
569.22	4590.00
569.67	4677.00
570.12	4646.00
570.58	4693.00
571.03	4648.00
571.48	4681.00
571.93	4740.00
572.39	4612.00
572.84	4584.00
573.29	5471.00
573.74	4617.00
574.19	4608.00
574.65	5383.00
575.10	4805.00
575.55	4539.00
576.00	4585.00
576.45	4647.00
576.91	4552.00
577.36	4534.00
577.81	4514.00
578.26	4534.00
578.71	4976.00
579.17	4690.00
579.62	5392.00
580.07	4600.00
580.52	4639.00
580.97	4612.00
581.42	4548.00
581.88	4558.00
582.33	4536.00
582.78	4957.00
583.23	4500.00
583.68	4582.00
584.13	4562.00
584.59	4560.00
585.04	4690.00
585.49	4502.00
585.94	4617.00
586.39	4449.00
586.84	4492.00
587.29	4502.00
587.74	4443.00
588.20	4512.00
588.65	4548.00
589.10	4554.00
589.55	4510.00
590.00	4552.00
590.45	4490.00
590.90	4528.00
591.35	4590.00
591.81	4417.00
592.26	4326.00
592.71	4552.00
593.16	4498.00
593.61	5290.00
594.06	4503.00
594.51	4422.00
594.96	4414.00
595.41	4531.00
595.86	4521.00
596.31	4350.00
596.76	4404.00
597.22	4391.00
597.67	4344.00
598.12	4553.00
598.57	4567.00
599.02	4339.00
599.47	4485.00
599.92	4324.00
600.37	4413.00
600.82	4337.00
601.27	4271.00
601.72	4353.00
602.17	4289.00
602.62	4429.00
603.07	4324.00
603.52	4316.00
603.97	4642.00
604.42	4282.00
604.87	4261.00
605.32	4272.00
605.77	4186.00
606.22	4218.00
606.67	4336.00
607.12	4193.00
607.57	4200.00
608.02	4249.00
608.47	4194.00
608.92	4140.00
609.37	4143.00
609.82	4305.00
610.27	4148.00
610.72	4078.00
611.17	5070.00
611.62	4217.00
612.07	4299.00
612.52	4154.00
612.97	4491.00
613.42	4104.00
613.87	4016.00
614.32	4350.00
614.77	4101.00
615.22	3973.00
615.67	4062.00
616.12	4074.00
616.57	4070.00
617.02	3948.00
617.47	3995.00
617.92	3918.00
618.37	3941.00
618.82	3909.00
619.27	3911.00
619.72	3953.00
620.17	3913.00
620.62	3864.00
621.06	3836.00
621.51	3829.00
621.96	4159.00
622.41	3825.00
622.86	3786.00
623.31	3892.00
623.76	4132.00
624.21	3740.00
624.66	3678.00
625.11	3732.00
625.56	3681.00
626.00	3681.00
626.45	3639.00
626.90	3636.00
627.35	3644.00
627.80	3632.00
628.25	3602.00
628.70	3590.00
629.15	3671.00
629.60	3615.00
630.04	3664.00
630.49	3594.00
630.94	3599.00
631.39	3720.00
631.84	3568.00
632.29	3585.00
632.74	3714.00
633.18	3645.00
633.63	3760.00
634.08	3576.00
634.53	3632.00
634.98	3640.00
635.43	3660.00
635.88	3640.00
636.32	3609.00
636.77	3954.00
637.22	3721.00
637.67	3630.00
638.12	3620.00
638.56	4354.00
639.01	3782.00
639.46	3735.00
639.91	3960.00
640.36	3720.00
640.81	3866.00
641.25	3823.00
641.70	3678.00
642.15	3744.00
642.60	3692.00
643.05	3797.00
643.49	3840.00
643.94	3680.00
644.39	3744.00
644.84	3696.00
645.28	3773.00
645.73	3701.00
646.18	3780.00
646.63	3805.00
647.08	3735.00
647.52	3757.00
647.97	3739.00
648.42	4470.00
648.87	3827.00
649.31	4693.00
649.76	3822.00
650.21	3789.00
650.66	4136.00
651.10	3870.00
651.55	3818.00
652.00	3826.00
652.45	3824.00
652.89	3859.00
653.34	3895.00
653.79	3800.00
654.24	3864.00
654.68	3909.00
655.13	4100.00
655.58	3852.00
656.02	3900.00
656.47	3935.00
656.92	4283.00
657.37	3988.00
657.81	4005.00
658.26	3979.00
658.71	3977.00
659.15	3995.00
659.60	3956.00
660.05	3984.00
660.49	3984.00
660.94	3988.00
661.39	3959.00
661.83	5646.00
662.28	4031.00
662.73	3998.00
663.17	4009.00
663.62	4070.00
664.07	4104.00
664.51	4066.00
664.96	4071.00
665.41	4187.00
665.85	4014.00
666.30	3940.00
666.75	4123.00
667.19	4042.00
667.64	4094.00
668.09	4056.00
668.53	4198.00
668.98	4126.00
669.43	4080.00
669.87	4458.00
670.32	4085.00
670.76	4094.00
671.21	4119.00
671.66	4076.00
672.10	4114.00
672.55	4279.00
673.00	4116.00
673.44	4134.00
673.89	4464.00
674.33	4113.00
674.78	5006.00
675.23	4320.00
675.67	4124.00
676.12	4133.00
676.56	4154.00
677.01	4130.00
677.46	4191.00
677.90	4142.00
678.35	4107.00
678.79	4238.00
679.24	4149.00
679.68	4199.00
680.13	4357.00
680.58	5133.00
681.02	4170.00
681.47	4100.00
681.91	4124.00
682.36	4156.00
682.80	4278.00
683.25	4140.00
683.69	4216.00
684.14	4193.00
684.59	4194.00
685.03	4118.00
685.48	4100.00
685.92	4155.00
686.37	4200.00
686.81	4098.00
687.26	4133.00
687.70	4154.00
688.15	4094.00
688.59	4234.00
689.04	4228.00
689.48	4122.00
689.93	4147.00
690.37	4134.00
690.82	4118.00
691.26	4206.00
691.71	4192.00
692.15	4379.00
692.60	4067.00
693.04	4118.00
693.49	4129.00
693.93	4060.00
694.38	4106.00
694.82	4135.00
695.27	4083.00
695.71	4056.00
696.16	4082.00
696.60	4113.00
697.05	4217.00
697.49	4091.00
697.93	4576.00
698.38	4109.00
698.82	4102.00
699.27	4219.00
699.71	4095.00
700.16	4081.00
700.60	4040.00
701.05	4059.00
701.49	4198.00
701.93	4061.00
702.38	4062.00
702.82	4229.00
703.27	4219.00
703.71	4144.00
704.16	4169.00
704.60	4046.00
705.04	4015.00
705.49	4028.00
705.93	4061.00
706.38	4181.00
706.82	4133.00
707.26	4042.00
707.71	4058.00
708.15	4115.00
708.60	3980.00
709.04	4041.00
709.48	4006.00
709.93	4421.00
710.37	4145.00
710.82	3999.00
711.26	4070.00
711.70	4700.00
712.15	3985.00
712.59	3976.00
713.03	4006.00
713.48	4141.00
713.92	3971.00
714.37	3952.00
714.81	4964.00
715.25	4025.00
715.70	4422.00
716.14	4040.00
716.58	3864.00
717.03	3893.00
717.47	3901.00
717.91	3899.00
718.36	3906.00
718.80	3970.00
719.24	3923.00
719.69	4154.00
720.13	3881.00
720.57	3824.00
721.02	3780.00
721.46	3819.00
721.90	3824.00
722.35	3782.00
722.79	3760.00
723.23	3780.00
723.67	3865.00
724.12	3751.00
724.56	4152.00
725.00	3775.00
725.45	3711.00
725.89	3781.00
726.33	3828.00
726.77	4077.00
727.22	3908.00
727.66	3850.00
728.10	3705.00
728.55	3702.00
728.99	3784.00
729.43	3689.00
729.87	4938.00
730.32	3916.00
730.76	4144.00
731.20	3734.00
731.64	3826.00
732.09	3708.00
732.53	3664.00
732.97	3762.00
733.41	3725.00
733.86	3713.00
734.30	3740.00
734.74	3784.00
735.18	3621.00
735.62	3700.00
736.07	3640.00
736.51	3636.00
736.95	3839.00
737.39	3600.00
737.84	3595.00
738.28	3650.00
738.72	3738.00
739.16	3619.00
739.60	3613.00
740.05	3559.00
740.49	3597.00
740.93	3604.00
741.37	3973.00
741.81	3607.00
742.26	4432.00
742.70	3584.00
