SpectraSuite Data File
++++++++++++++++++++++++++++++++++++
Date: Wed Apr 05 11:29:53 EDT 2017
User: manoharanlab
Dark Spectrum Present: No
Reference Spectrum Present: No
Number of Sampled Component Spectra: 1
Spectrometers: HR+C0212
Integration Time (usec): 5000000 (HR+C0212)
Spectra Averaged: 1 (HR+C0212)
Boxcar Smoothing: 0 (HR+C0212)
Correct for Electrical Dark: No (HR+C0212)
Strobe/Lamp Enabled: No (HR+C0212)
Correct for Detector Non-linearity: No (HR+C0212)
Correct for Stray Light: No (HR+C0212)
Number of Pixels in Processed Spectrum: 2048
>>>>>Begin Processed Spectral Data<<<<<
188.35	1631.00
188.83	1557.00
189.30	1577.00
189.77	1562.00
190.25	1565.00
190.72	1996.00
191.20	1674.00
191.67	1742.00
192.14	1627.00
192.62	1634.00
193.09	1638.00
193.57	1639.00
194.04	1811.00
194.51	1655.00
194.99	1954.00
195.46	1646.00
195.94	1760.00
196.41	1678.00
196.88	1776.00
197.36	1734.00
197.83	2331.00
198.30	1680.00
198.78	1810.00
199.25	1664.00
199.72	1633.00
200.20	1649.00
200.67	1677.00
201.15	1686.00
201.62	1732.00
202.09	1808.00
202.57	1760.00
203.04	1689.00
203.51	1722.00
203.99	1703.00
204.46	1674.00
204.93	1783.00
205.41	1720.00
205.88	1721.00
206.35	1862.00
206.83	1678.00
207.30	1763.00
207.77	1692.00
208.24	1765.00
208.72	1746.00
209.19	1695.00
209.66	1778.00
210.14	1959.00
210.61	1801.00
211.08	2584.00
211.56	1772.00
212.03	1679.00
212.50	2022.00
212.97	1805.00
213.45	1772.00
213.92	1872.00
214.39	1669.00
214.87	1696.00
215.34	1698.00
215.81	1709.00
216.28	1647.00
216.76	1639.00
217.23	1993.00
217.70	1918.00
218.17	1788.00
218.65	1784.00
219.12	1693.00
219.59	1677.00
220.06	1753.00
220.54	3863.00
221.01	1859.00
221.48	1644.00
221.95	1656.00
222.43	1652.00
222.90	1790.00
223.37	1762.00
223.84	1791.00
224.31	1684.00
224.79	1673.00
225.26	1748.00
225.73	1946.00
226.20	1749.00
226.68	1697.00
227.15	1688.00
227.62	1701.00
228.09	1767.00
228.56	1701.00
229.04	1664.00
229.51	1932.00
229.98	1674.00
230.45	1671.00
230.92	1672.00
231.39	1700.00
231.87	1837.00
232.34	1703.00
232.81	1682.00
233.28	1656.00
233.75	1786.00
234.22	1671.00
234.70	1960.00
235.17	1715.00
235.64	1838.00
236.11	1671.00
236.58	1826.00
237.05	1683.00
237.53	1758.00
238.00	1714.00
238.47	2487.00
238.94	2156.00
239.41	1704.00
239.88	1769.00
240.35	1658.00
240.83	1858.00
241.30	1745.00
241.77	1710.00
242.24	1708.00
242.71	1674.00
243.18	1956.00
243.65	1686.00
244.12	1671.00
244.59	1648.00
245.07	1767.00
245.54	1716.00
246.01	1652.00
246.48	1653.00
246.95	1768.00
247.42	1756.00
247.89	1718.00
248.36	1770.00
248.83	1701.00
249.30	1664.00
249.77	1778.00
250.25	1695.00
250.72	1666.00
251.19	3210.00
251.66	1898.00
252.13	1678.00
252.60	1674.00
253.07	1703.00
253.54	1658.00
254.01	1746.00
254.48	1779.00
254.95	1774.00
255.42	1689.00
255.89	1671.00
256.36	1777.00
256.83	1662.00
257.30	1660.00
257.77	1734.00
258.24	1671.00
258.72	1673.00
259.19	1882.00
259.66	1692.00
260.13	1672.00
260.60	1900.00
261.07	1845.00
261.54	1668.00
262.01	1802.00
262.48	1751.00
262.95	1676.00
263.42	1639.00
263.89	1666.00
264.36	1704.00
264.83	1662.00
265.30	1789.00
265.77	1922.00
266.24	1656.00
266.71	2083.00
267.18	1696.00
267.65	1689.00
268.12	1670.00
268.59	1862.00
269.06	1672.00
269.52	1669.00
269.99	1689.00
270.46	1734.00
270.93	1740.00
271.40	1829.00
271.87	1633.00
272.34	1706.00
272.81	1748.00
273.28	1845.00
273.75	1831.00
274.22	1706.00
274.69	1638.00
275.16	1672.00
275.63	1748.00
276.10	1710.00
276.57	1811.00
277.04	1660.00
277.51	1652.00
277.97	1754.00
278.44	1658.00
278.91	1782.00
279.38	1697.00
279.85	1754.00
280.32	1740.00
280.79	1650.00
281.26	1812.00
281.73	1636.00
282.20	1644.00
282.67	1650.00
283.13	1669.00
283.60	1653.00
284.07	1682.00
284.54	1673.00
285.01	1658.00
285.48	2357.00
285.95	1717.00
286.42	1648.00
286.89	1740.00
287.35	1660.00
287.82	1683.00
288.29	1672.00
288.76	1689.00
289.23	1693.00
289.70	1789.00
290.17	1701.00
290.63	1734.00
291.10	1669.00
291.57	1634.00
292.04	1671.00
292.51	1693.00
292.98	1883.00
293.44	1688.00
293.91	1660.00
294.38	1675.00
294.85	1729.00
295.32	1762.00
295.79	1741.00
296.25	1672.00
296.72	1645.00
297.19	2488.00
297.66	1785.00
298.13	1759.00
298.59	1674.00
299.06	1783.00
299.53	1693.00
300.00	2611.00
300.47	1745.00
300.93	1708.00
301.40	1763.00
301.87	1636.00
302.34	1619.00
302.81	1650.00
303.27	1666.00
303.74	1681.00
304.21	1672.00
304.68	1640.00
305.14	1756.00
305.61	1732.00
306.08	1659.00
306.55	1924.00
307.02	1679.00
307.48	1755.00
307.95	1666.00
308.42	1706.00
308.89	1663.00
309.35	1749.00
309.82	1869.00
310.29	1717.00
310.76	1662.00
311.22	1720.00
311.69	1667.00
312.16	1632.00
312.62	1744.00
313.09	1657.00
313.56	1618.00
314.03	1764.00
314.49	1645.00
314.96	1744.00
315.43	1682.00
315.89	1758.00
316.36	1668.00
316.83	1642.00
317.30	1639.00
317.76	1734.00
318.23	1668.00
318.70	1680.00
319.16	1689.00
319.63	1680.00
320.10	1653.00
320.56	1673.00
321.03	1755.00
321.50	1830.00
321.96	1662.00
322.43	1653.00
322.90	1654.00
323.36	1649.00
323.83	1655.00
324.30	1650.00
324.76	1638.00
325.23	1756.00
325.70	1714.00
326.16	1753.00
326.63	1752.00
327.10	2729.00
327.56	1737.00
328.03	1752.00
328.50	1823.00
328.96	1685.00
329.43	1672.00
329.90	1689.00
330.36	1706.00
330.83	1832.00
331.29	1678.00
331.76	2187.00
332.23	1880.00
332.69	2809.00
333.16	1767.00
333.62	1657.00
334.09	1720.00
334.56	1638.00
335.02	1680.00
335.49	1669.00
335.95	1700.00
336.42	1657.00
336.89	1683.00
337.35	1767.00
337.82	1913.00
338.28	1928.00
338.75	1800.00
339.22	1698.00
339.68	2067.00
340.15	1718.00
340.61	1692.00
341.08	1676.00
341.54	1668.00
342.01	1746.00
342.48	1682.00
342.94	1673.00
343.41	1656.00
343.87	1651.00
344.34	1702.00
344.80	1858.00
345.27	1701.00
345.73	1846.00
346.20	9117.00
346.66	2090.00
347.13	1686.00
347.59	1665.00
348.06	1677.00
348.53	1850.00
348.99	1794.00
349.46	1803.00
349.92	1716.00
350.39	1822.00
350.85	1762.00
351.32	1792.00
351.78	1744.00
352.25	1757.00
352.71	1760.00
353.18	1678.00
353.64	1693.00
354.11	1667.00
354.57	1758.00
355.04	1717.00
355.50	1762.00
355.97	1666.00
356.43	1801.00
356.90	1695.00
357.36	2111.00
357.82	1740.00
358.29	1712.00
358.75	1708.00
359.22	1685.00
359.68	1680.00
360.15	1724.00
360.61	1791.00
361.08	1885.00
361.54	1987.00
362.01	1730.00
362.47	1690.00
362.93	1706.00
363.40	1702.00
363.86	1853.00
364.33	1715.00
364.79	1752.00
365.26	1750.00
365.72	1707.00
366.19	1781.00
366.65	1784.00
367.11	1877.00
367.58	1825.00
368.04	1819.00
368.51	1924.00
368.97	1729.00
369.43	1805.00
369.90	1741.00
370.36	1765.00
370.83	1921.00
371.29	1741.00
371.75	2802.00
372.22	2032.00
372.68	1740.00
373.15	2732.00
373.61	1819.00
374.07	1768.00
374.54	1728.00
375.00	1766.00
375.46	1741.00
375.93	1787.00
376.39	1758.00
376.86	1768.00
377.32	1835.00
377.78	1882.00
378.25	1792.00
378.71	1800.00
379.17	1754.00
379.64	1948.00
380.10	1826.00
380.56	2278.00
381.03	2298.00
381.49	2040.00
381.95	1831.00
382.42	5644.00
382.88	2033.00
383.34	1816.00
383.81	1782.00
384.27	1805.00
384.73	1893.00
385.20	1791.00
385.66	1777.00
386.12	1834.00
386.59	1814.00
387.05	1818.00
387.51	1779.00
387.97	1816.00
388.44	2536.00
388.90	1886.00
389.36	1941.00
389.83	1823.00
390.29	1841.00
390.75	1924.00
391.21	1821.00
391.68	1918.00
392.14	2897.00
392.60	2131.00
393.07	1944.00
393.53	1896.00
393.99	1871.00
394.45	2428.00
394.92	1988.00
395.38	1949.00
395.84	1968.00
396.30	1848.00
396.77	1873.00
397.23	2044.00
397.69	2038.00
398.15	2006.00
398.62	2100.00
399.08	1988.00
399.54	2067.00
400.00	2035.00
400.46	1936.00
400.93	1910.00
401.39	1995.00
401.85	2012.00
402.31	1927.00
402.78	1942.00
403.24	2044.00
403.70	2056.00
404.16	1986.00
404.62	3216.00
405.09	2401.00
405.55	2002.00
406.01	2044.00
406.47	2013.00
406.93	1985.00
407.40	2048.00
407.86	1984.00
408.32	2059.00
408.78	2117.00
409.24	2144.00
409.70	2218.00
410.17	2081.00
410.63	2074.00
411.09	2106.00
411.55	2127.00
412.01	2152.00
412.47	2263.00
412.94	2284.00
413.40	2277.00
413.86	2068.00
414.32	2074.00
414.78	2098.00
415.24	2099.00
415.71	2120.00
416.17	2097.00
416.63	2109.00
417.09	2116.00
417.55	2123.00
418.01	2553.00
418.47	2186.00
418.93	2200.00
419.40	2189.00
419.86	2169.00
420.32	2348.00
420.78	2255.00
421.24	2231.00
421.70	2196.00
422.16	2219.00
422.62	2254.00
423.08	2517.00
423.54	2268.00
424.01	2335.00
424.47	2230.00
424.93	2316.00
425.39	2993.00
425.85	2312.00
426.31	2300.00
426.77	2525.00
427.23	2411.00
427.69	2382.00
428.15	2342.00
428.61	2498.00
429.07	2547.00
429.53	2327.00
430.00	2366.00
430.46	2366.00
430.92	2331.00
431.38	2513.00
431.84	2486.00
432.30	2409.00
432.76	2527.00
433.22	2395.00
433.68	2697.00
434.14	2481.00
434.60	2684.00
435.06	2499.00
435.52	2571.00
435.98	2478.00
436.44	2560.00
436.90	2540.00
437.36	2622.00
437.82	2988.00
438.28	2679.00
438.74	2599.00
439.20	2610.00
439.66	2508.00
440.12	2630.00
440.58	2642.00
441.04	2680.00
441.50	2628.00
441.96	2651.00
442.42	2669.00
442.88	2806.00
443.34	2677.00
443.80	2686.00
444.26	2804.00
444.72	2681.00
445.18	2799.00
445.64	2801.00
446.10	2684.00
446.56	2709.00
447.02	2737.00
447.48	2738.00
447.94	2878.00
448.40	2955.00
448.86	3136.00
449.32	2754.00
449.77	2778.00
450.23	3278.00
450.69	2864.00
451.15	2954.00
451.61	2850.00
452.07	2851.00
452.53	3050.00
452.99	2954.00
453.45	3565.00
453.91	3157.00
454.37	3137.00
454.83	3010.00
455.29	2998.00
455.74	3001.00
456.20	3072.00
456.66	3141.00
457.12	2985.00
457.58	3098.00
458.04	3172.00
458.50	3174.00
458.96	3144.00
459.42	3232.00
459.88	3155.00
460.33	3273.00
460.79	3331.00
461.25	3242.00
461.71	3529.00
462.17	3473.00
462.63	3361.00
463.09	3485.00
463.54	3420.00
464.00	3490.00
464.46	3664.00
464.92	3638.00
465.38	3854.00
465.84	3562.00
466.30	3580.00
466.75	3723.00
467.21	3732.00
467.67	3781.00
468.13	3780.00
468.59	4051.00
469.05	4006.00
469.50	4050.00
469.96	4091.00
470.42	4126.00
470.88	4162.00
471.34	4180.00
471.80	4271.00
472.25	4257.00
472.71	4314.00
473.17	4490.00
473.63	4754.00
474.09	4627.00
474.54	4731.00
475.00	4578.00
475.46	4728.00
475.92	4865.00
476.38	4862.00
476.83	4886.00
477.29	4883.00
477.75	5653.00
478.21	5324.00
478.66	5201.00
479.12	5345.00
479.58	5285.00
480.04	6507.00
480.50	5710.00
480.95	6647.00
481.41	5713.00
481.87	6585.00
482.33	5796.00
482.78	5728.00
483.24	6486.00
483.70	6032.00
484.16	6086.00
484.61	6160.00
485.07	6245.00
485.53	6924.00
485.98	6354.00
486.44	6383.00
486.90	6450.00
487.36	6577.00
487.81	6621.00
488.27	6772.00
488.73	6672.00
489.18	6751.00
489.64	7070.00
490.10	6817.00
490.56	6943.00
491.01	7085.00
491.47	7029.00
491.93	7024.00
492.38	7124.00
492.84	7407.00
493.30	7272.00
493.75	7381.00
494.21	7323.00
494.67	7479.00
495.13	7534.00
495.58	7484.00
496.04	7592.00
496.50	7784.00
496.95	7704.00
497.41	7776.00
497.87	7845.00
498.32	7904.00
498.78	8174.00
499.23	7849.00
499.69	8034.00
500.15	8062.00
500.60	8078.00
501.06	8039.00
501.52	9203.00
501.97	8231.00
502.43	8283.00
502.89	8140.00
503.34	8337.00
503.80	8291.00
504.25	8278.00
504.71	8398.00
505.17	8536.00
505.62	8496.00
506.08	8601.00
506.54	8618.00
506.99	9036.00
507.45	8669.00
507.90	8720.00
508.36	8628.00
508.82	8822.00
509.27	8805.00
509.73	8826.00
510.18	8794.00
510.64	8818.00
511.10	8778.00
511.55	8795.00
512.01	9003.00
512.46	8901.00
512.92	8903.00
513.37	8917.00
513.83	9028.00
514.29	8961.00
514.74	9049.00
515.20	9155.00
515.65	9224.00
516.11	9092.00
516.56	9190.00
517.02	9547.00
517.47	9288.00
517.93	9153.00
518.39	9370.00
518.84	9236.00
519.30	9322.00
519.75	9427.00
520.21	9296.00
520.66	9336.00
521.12	9392.00
521.57	9358.00
522.03	9336.00
522.48	9537.00
522.94	9624.00
523.39	9460.00
523.85	9705.00
524.30	9558.00
524.76	9576.00
525.21	9572.00
525.67	9642.00
526.12	10040.00
526.58	9836.00
527.03	9792.00
527.49	9800.00
527.94	9835.00
528.40	10104.00
528.85	10076.00
529.31	9783.00
529.76	9900.00
530.22	9798.00
530.67	9982.00
531.13	9951.00
531.58	9980.00
532.03	10164.00
532.49	10303.00
532.94	10142.00
533.40	10132.00
533.85	10188.00
534.31	10097.00
534.76	10152.00
535.22	10223.00
535.67	10322.00
536.12	10299.00
536.58	10271.00
537.03	10395.00
537.49	10823.00
537.94	11028.00
538.40	10429.00
538.85	10489.00
539.30	10455.00
539.76	10572.00
540.21	10588.00
540.67	11258.00
541.12	10665.00
541.58	10685.00
542.03	10743.00
542.48	10750.00
542.94	10674.00
543.39	10797.00
543.84	11659.00
544.30	11090.00
544.75	10881.00
545.21	10891.00
545.66	10929.00
546.11	11108.00
546.57	10993.00
547.02	10904.00
547.48	11197.00
547.93	11358.00
548.38	11090.00
548.84	11268.00
549.29	11252.00
549.74	11166.00
550.20	11399.00
550.65	11250.00
551.10	11316.00
551.56	11321.00
552.01	11338.00
552.46	11266.00
552.92	11447.00
553.37	11805.00
553.82	11369.00
554.28	11450.00
554.73	11244.00
555.18	11479.00
555.64	11422.00
556.09	11338.00
556.54	11370.00
557.00	11472.00
557.45	11284.00
557.90	12128.00
558.36	11773.00
558.81	11435.00
559.26	11510.00
559.71	11581.00
560.17	11380.00
560.62	11383.00
561.07	11387.00
561.53	11345.00
561.98	11533.00
562.43	11458.00
562.88	11630.00
563.34	12046.00
563.79	11371.00
564.24	11426.00
564.70	11621.00
565.15	11740.00
565.60	11496.00
566.05	11459.00
566.51	11404.00
566.96	11373.00
567.41	11547.00
567.86	11497.00
568.32	11364.00
568.77	11354.00
569.22	11441.00
569.67	11423.00
570.12	11401.00
570.58	11546.00
571.03	11494.00
571.48	11485.00
571.93	11549.00
572.39	11539.00
572.84	11545.00
573.29	12339.00
573.74	11551.00
574.19	11552.00
574.65	12220.00
575.10	11724.00
575.55	11519.00
576.00	11574.00
576.45	11605.00
576.91	11572.00
577.36	11554.00
577.81	11572.00
578.26	11635.00
578.71	11946.00
579.17	11641.00
579.62	12305.00
580.07	11741.00
580.52	11717.00
580.97	11670.00
581.42	11635.00
581.88	11653.00
582.33	11687.00
582.78	12134.00
583.23	11692.00
583.68	11777.00
584.13	11677.00
584.59	11757.00
585.04	11842.00
585.49	11811.00
585.94	11814.00
586.39	11801.00
586.84	11756.00
587.29	11722.00
587.74	11666.00
588.20	11818.00
588.65	11837.00
589.10	11906.00
589.55	11909.00
590.00	11965.00
590.45	11910.00
590.90	11974.00
591.35	12070.00
591.81	11738.00
592.26	11626.00
592.71	12093.00
593.16	11878.00
593.61	12688.00
594.06	11975.00
594.51	11907.00
594.96	11927.00
595.41	12165.00
595.86	12052.00
596.31	12054.00
596.76	11932.00
597.22	12050.00
597.67	11860.00
598.12	12152.00
598.57	12199.00
599.02	11965.00
599.47	12047.00
599.92	11952.00
600.37	12023.00
600.82	12072.00
601.27	12031.00
601.72	11968.00
602.17	11976.00
602.62	12003.00
603.07	11990.00
603.52	12069.00
603.97	12478.00
604.42	11952.00
604.87	11949.00
605.32	12030.00
605.77	11969.00
606.22	11965.00
606.67	12013.00
607.12	12091.00
607.57	11957.00
608.02	12154.00
608.47	11914.00
608.92	11891.00
609.37	12004.00
609.82	12029.00
610.27	11897.00
610.72	11816.00
611.17	12831.00
611.62	12027.00
612.07	11996.00
612.52	12023.00
612.97	12386.00
613.42	11823.00
613.87	11814.00
614.32	12128.00
614.77	11825.00
615.22	11738.00
615.67	11894.00
616.12	11909.00
616.57	11886.00
617.02	11705.00
617.47	11817.00
617.92	11722.00
618.37	11695.00
618.82	11666.00
619.27	11720.00
619.72	11774.00
620.17	11695.00
620.62	11616.00
621.06	11553.00
621.51	11603.00
621.96	11836.00
622.41	11588.00
622.86	11531.00
623.31	11681.00
623.76	11813.00
624.21	11483.00
624.66	11518.00
625.11	11456.00
625.56	11452.00
626.00	11408.00
626.45	11492.00
626.90	11376.00
627.35	11356.00
627.80	11366.00
628.25	11303.00
628.70	11401.00
629.15	11355.00
629.60	11333.00
630.04	11290.00
630.49	11250.00
630.94	11375.00
631.39	11361.00
631.84	11193.00
632.29	11272.00
632.74	11271.00
633.18	11253.00
633.63	11312.00
634.08	11166.00
634.53	11163.00
634.98	11180.00
635.43	11112.00
635.88	11139.00
636.32	11232.00
636.77	11442.00
637.22	11169.00
637.67	11105.00
638.12	11061.00
638.56	11797.00
639.01	11221.00
639.46	11151.00
639.91	11254.00
640.36	11190.00
640.81	11112.00
641.25	11229.00
641.70	10958.00
642.15	11053.00
642.60	11042.00
643.05	11072.00
643.49	11139.00
643.94	11067.00
644.39	11049.00
644.84	11054.00
645.28	11015.00
645.73	10956.00
646.18	10907.00
646.63	10958.00
647.08	10856.00
647.52	10889.00
647.97	10903.00
648.42	11573.00
648.87	10804.00
649.31	11868.00
649.76	10950.00
650.21	10858.00
650.66	11119.00
651.10	10865.00
651.55	10740.00
652.00	10735.00
652.45	10828.00
652.89	10918.00
653.34	10850.00
653.79	10755.00
654.24	10726.00
654.68	10762.00
655.13	10883.00
655.58	10652.00
656.02	10780.00
656.47	10655.00
656.92	10973.00
657.37	10611.00
657.81	10694.00
658.26	10600.00
658.71	10663.00
659.15	10600.00
659.60	10546.00
660.05	10556.00
660.49	10542.00
660.94	10517.00
661.39	10410.00
661.83	11992.00
662.28	10435.00
662.73	10417.00
663.17	10383.00
663.62	10391.00
664.07	10493.00
664.51	10407.00
664.96	10256.00
665.41	10382.00
665.85	10168.00
666.30	10168.00
666.75	10293.00
667.19	10074.00
667.64	10188.00
668.09	10127.00
668.53	10150.00
668.98	10132.00
669.43	10073.00
669.87	10319.00
670.32	9818.00
670.76	9833.00
671.21	9908.00
671.66	9816.00
672.10	9756.00
672.55	10044.00
673.00	9710.00
673.44	9817.00
673.89	10045.00
674.33	9648.00
674.78	10475.00
675.23	9632.00
675.67	9670.00
676.12	9544.00
676.56	9670.00
677.01	9515.00
677.46	9464.00
677.90	9489.00
678.35	9413.00
678.79	9408.00
679.24	9334.00
679.68	9393.00
680.13	9452.00
680.58	10293.00
681.02	9253.00
681.47	9130.00
681.91	9116.00
682.36	9083.00
682.80	9277.00
683.25	9049.00
683.69	9161.00
684.14	9041.00
684.59	9010.00
685.03	8939.00
685.48	8939.00
685.92	8910.00
686.37	9013.00
686.81	8856.00
687.26	8780.00
687.70	8763.00
688.15	8730.00
688.59	8836.00
689.04	8810.00
689.48	8719.00
689.93	8680.00
690.37	8710.00
690.82	8557.00
691.26	8587.00
691.71	8559.00
692.15	8735.00
692.60	8527.00
693.04	8453.00
693.49	8405.00
693.93	8407.00
694.38	8391.00
694.82	8359.00
695.27	8317.00
695.71	8267.00
696.16	8364.00
696.60	8240.00
697.05	8370.00
697.49	8308.00
697.93	8632.00
698.38	8211.00
698.82	8200.00
699.27	8305.00
699.71	8109.00
700.16	8140.00
700.60	8055.00
701.05	8006.00
701.49	8139.00
701.93	7962.00
702.38	7929.00
702.82	8016.00
703.27	8023.00
703.71	8046.00
704.16	7945.00
704.60	7883.00
705.04	7860.00
705.49	7899.00
705.93	7875.00
706.38	7881.00
706.82	7794.00
707.26	7800.00
707.71	7752.00
708.15	7750.00
708.60	7671.00
709.04	7673.00
709.48	7616.00
709.93	8000.00
710.37	7676.00
710.82	7578.00
711.26	7610.00
711.70	8154.00
712.15	7607.00
712.59	7412.00
713.03	7470.00
713.48	7615.00
713.92	7369.00
714.37	7365.00
714.81	8312.00
715.25	7357.00
715.70	7795.00
716.14	7300.00
716.58	7172.00
717.03	7152.00
717.47	7193.00
717.91	7128.00
718.36	7042.00
718.80	7084.00
719.24	7042.00
719.69	7288.00
720.13	7010.00
720.57	6937.00
721.02	6868.00
721.46	6716.00
721.90	6870.00
722.35	6758.00
722.79	6718.00
723.23	6736.00
723.67	6776.00
724.12	6651.00
724.56	7118.00
725.00	6720.00
725.45	6551.00
725.89	6682.00
726.33	6689.00
726.77	7042.00
727.22	6731.00
727.66	6640.00
728.10	6569.00
728.55	6450.00
728.99	6455.00
729.43	6472.00
729.87	7798.00
730.32	6728.00
730.76	7001.00
731.20	6484.00
731.64	6481.00
732.09	6380.00
732.53	6424.00
732.97	6421.00
733.41	6430.00
733.86	6405.00
734.30	6436.00
