SpectraSuite Data File
++++++++++++++++++++++++++++++++++++
Date: Wed Apr 05 12:13:28 EDT 2017
User: manoharanlab
Dark Spectrum Present: No
Reference Spectrum Present: No
Number of Sampled Component Spectra: 1
Spectrometers: HR+C0212
Integration Time (usec): 5000000 (HR+C0212)
Spectra Averaged: 1 (HR+C0212)
Boxcar Smoothing: 0 (HR+C0212)
Correct for Electrical Dark: No (HR+C0212)
Strobe/Lamp Enabled: No (HR+C0212)
Correct for Detector Non-linearity: No (HR+C0212)
Correct for Stray Light: No (HR+C0212)
Number of Pixels in Processed Spectrum: 2048
>>>>>Begin Processed Spectral Data<<<<<
188.35	1657.00
188.83	1594.00
189.30	1571.00
189.77	1588.00
190.25	1588.00
190.72	2021.00
191.20	1672.00
191.67	1770.00
192.14	1653.00
192.62	1642.00
193.09	1651.00
193.57	1625.00
194.04	1824.00
194.51	1666.00
194.99	1964.00
195.46	1682.00
195.94	1756.00
196.41	1687.00
196.88	1799.00
197.36	1725.00
197.83	2341.00
198.30	1703.00
198.78	1827.00
199.25	1690.00
199.72	1656.00
200.20	1651.00
200.67	1698.00
201.15	1682.00
201.62	1713.00
202.09	1812.00
202.57	1782.00
203.04	1700.00
203.51	1711.00
203.99	1711.00
204.46	1699.00
204.93	1774.00
205.41	1694.00
205.88	1709.00
206.35	1899.00
206.83	1701.00
207.30	1780.00
207.77	1715.00
208.24	1786.00
208.72	1750.00
209.19	1700.00
209.66	1778.00
210.14	1942.00
210.61	1809.00
211.08	2577.00
211.56	1769.00
212.03	1706.00
212.50	2210.00
212.97	1848.00
213.45	1806.00
213.92	1866.00
214.39	1684.00
214.87	1689.00
215.34	1703.00
215.81	1746.00
216.28	1660.00
216.76	1684.00
217.23	2003.00
217.70	1920.00
218.17	1780.00
218.65	1772.00
219.12	1688.00
219.59	1673.00
220.06	1739.00
220.54	3784.00
221.01	1873.00
221.48	1657.00
221.95	1662.00
222.43	1674.00
222.90	1801.00
223.37	1777.00
223.84	1806.00
224.31	1673.00
224.79	1668.00
225.26	1766.00
225.73	1939.00
226.20	1766.00
226.68	1725.00
227.15	1696.00
227.62	1691.00
228.09	1768.00
228.56	1711.00
229.04	1698.00
229.51	1905.00
229.98	1715.00
230.45	1688.00
230.92	1673.00
231.39	1695.00
231.87	1811.00
232.34	1700.00
232.81	1692.00
233.28	1668.00
233.75	1792.00
234.22	1672.00
234.70	1934.00
235.17	1708.00
235.64	1832.00
236.11	1703.00
236.58	1799.00
237.05	1680.00
237.53	1772.00
238.00	1713.00
238.47	2464.00
238.94	2170.00
239.41	1705.00
239.88	1765.00
240.35	1678.00
240.83	1831.00
241.30	1732.00
241.77	1695.00
242.24	1683.00
242.71	1686.00
243.18	1927.00
243.65	1688.00
244.12	1684.00
244.59	1674.00
245.07	1754.00
245.54	1712.00
246.01	1649.00
246.48	1675.00
246.95	1770.00
247.42	1768.00
247.89	1752.00
248.36	1773.00
248.83	1702.00
249.30	1674.00
249.77	1791.00
250.25	1719.00
250.72	1708.00
251.19	3084.00
251.66	1866.00
252.13	1676.00
252.60	1685.00
253.07	1716.00
253.54	1670.00
254.01	1737.00
254.48	1754.00
254.95	1779.00
255.42	1700.00
255.89	1675.00
256.36	1742.00
256.83	1663.00
257.30	1695.00
257.77	1738.00
258.24	1671.00
258.72	1679.00
259.19	1869.00
259.66	1725.00
260.13	1685.00
260.60	1892.00
261.07	1860.00
261.54	1709.00
262.01	1793.00
262.48	1755.00
262.95	1724.00
263.42	1669.00
263.89	1675.00
264.36	1706.00
264.83	1672.00
265.30	1808.00
265.77	1890.00
266.24	1688.00
266.71	2052.00
267.18	1693.00
267.65	1702.00
268.12	1696.00
268.59	1846.00
269.06	1694.00
269.52	1710.00
269.99	1695.00
270.46	1745.00
270.93	1762.00
271.40	1823.00
271.87	1680.00
272.34	1725.00
272.81	1756.00
273.28	1858.00
273.75	1815.00
274.22	1701.00
274.69	1662.00
275.16	1647.00
275.63	1750.00
276.10	1710.00
276.57	1785.00
277.04	1674.00
277.51	1662.00
277.97	1768.00
278.44	1660.00
278.91	1785.00
279.38	1676.00
279.85	1762.00
280.32	1736.00
280.79	1644.00
281.26	1800.00
281.73	1678.00
282.20	1634.00
282.67	1683.00
283.13	1660.00
283.60	1669.00
284.07	1681.00
284.54	1638.00
285.01	1655.00
285.48	2305.00
285.95	1716.00
286.42	1691.00
286.89	1746.00
287.35	1645.00
287.82	1678.00
288.29	1710.00
288.76	1684.00
289.23	1698.00
289.70	1793.00
290.17	1702.00
290.63	1744.00
291.10	1684.00
291.57	1654.00
292.04	1674.00
292.51	1679.00
292.98	1874.00
293.44	1700.00
293.91	1640.00
294.38	1710.00
294.85	1750.00
295.32	1779.00
295.79	1736.00
296.25	1685.00
296.72	1667.00
297.19	2438.00
297.66	1779.00
298.13	1749.00
298.59	1666.00
299.06	1771.00
299.53	1689.00
300.00	2601.00
300.47	1758.00
300.93	1716.00
301.40	1758.00
301.87	1655.00
302.34	1664.00
302.81	1652.00
303.27	1657.00
303.74	1665.00
304.21	1675.00
304.68	1691.00
305.14	1761.00
305.61	1759.00
306.08	1681.00
306.55	1897.00
307.02	1699.00
307.48	1794.00
307.95	1690.00
308.42	1712.00
308.89	1676.00
309.35	1738.00
309.82	1841.00
310.29	1735.00
310.76	1676.00
311.22	1730.00
311.69	1692.00
312.16	1657.00
312.62	1742.00
313.09	1669.00
313.56	1643.00
314.03	1745.00
314.49	1662.00
314.96	1735.00
315.43	1683.00
315.89	1747.00
316.36	1672.00
316.83	1678.00
317.30	1658.00
317.76	1772.00
318.23	1666.00
318.70	1689.00
319.16	1668.00
319.63	1668.00
320.10	1677.00
320.56	1683.00
321.03	1765.00
321.50	1838.00
321.96	1672.00
322.43	1703.00
322.90	1652.00
323.36	1657.00
323.83	1673.00
324.30	1647.00
324.76	1667.00
325.23	1768.00
325.70	1715.00
326.16	1737.00
326.63	1761.00
327.10	2635.00
327.56	1752.00
328.03	1752.00
328.50	1813.00
328.96	1690.00
329.43	1668.00
329.90	1687.00
330.36	1734.00
330.83	1854.00
331.29	1682.00
331.76	2169.00
332.23	1864.00
332.69	2701.00
333.16	1761.00
333.62	1672.00
334.09	1745.00
334.56	1667.00
335.02	1690.00
335.49	1681.00
335.95	1699.00
336.42	1678.00
336.89	1697.00
337.35	1793.00
337.82	1904.00
338.28	1942.00
338.75	1810.00
339.22	1679.00
339.68	2017.00
340.15	1724.00
340.61	1672.00
341.08	1695.00
341.54	1680.00
342.01	1771.00
342.48	1670.00
342.94	1678.00
343.41	1648.00
343.87	1647.00
344.34	1703.00
344.80	1880.00
345.27	1724.00
345.73	1829.00
346.20	8737.00
346.66	2085.00
347.13	1707.00
347.59	1683.00
348.06	1693.00
348.53	1868.00
348.99	1794.00
349.46	1789.00
349.92	1720.00
350.39	1840.00
350.85	1791.00
351.32	1790.00
351.78	1713.00
352.25	1751.00
352.71	1755.00
353.18	1691.00
353.64	1724.00
354.11	1693.00
354.57	1716.00
355.04	1739.00
355.50	1778.00
355.97	1716.00
356.43	1768.00
356.90	1711.00
357.36	2098.00
357.82	1722.00
358.29	1710.00
358.75	1725.00
359.22	1695.00
359.68	1704.00
360.15	1721.00
360.61	1818.00
361.08	1852.00
361.54	1960.00
362.01	1736.00
362.47	1689.00
362.93	1695.00
363.40	1695.00
363.86	1827.00
364.33	1720.00
364.79	1742.00
365.26	1768.00
365.72	1730.00
366.19	1811.00
366.65	1836.00
367.11	1863.00
367.58	1829.00
368.04	1826.00
368.51	1923.00
368.97	1745.00
369.43	1801.00
369.90	1718.00
370.36	1789.00
370.83	1922.00
371.29	1752.00
371.75	2760.00
372.22	2020.00
372.68	1753.00
373.15	2698.00
373.61	1809.00
374.07	1764.00
374.54	1730.00
375.00	1748.00
375.46	1743.00
375.93	1782.00
376.39	1760.00
376.86	1769.00
377.32	1847.00
377.78	1867.00
378.25	1780.00
378.71	1836.00
379.17	1769.00
379.64	1956.00
380.10	1818.00
380.56	2225.00
381.03	2272.00
381.49	2012.00
381.95	1813.00
382.42	5363.00
382.88	2014.00
383.34	1833.00
383.81	1807.00
384.27	1789.00
384.73	1884.00
385.20	1829.00
385.66	1816.00
386.12	1824.00
386.59	1819.00
387.05	1801.00
387.51	1816.00
387.97	1843.00
388.44	2514.00
388.90	1880.00
389.36	1935.00
389.83	1844.00
390.29	1850.00
390.75	1909.00
391.21	1848.00
391.68	1929.00
392.14	2790.00
392.60	2124.00
393.07	1953.00
393.53	1890.00
393.99	1900.00
394.45	2358.00
394.92	1980.00
395.38	1937.00
395.84	1981.00
396.30	1846.00
396.77	1872.00
397.23	2059.00
397.69	2068.00
398.15	2011.00
398.62	2128.00
399.08	1983.00
399.54	2055.00
400.00	2046.00
400.46	1922.00
400.93	1940.00
401.39	1989.00
401.85	2026.00
402.31	1941.00
402.78	1923.00
403.24	2068.00
403.70	2084.00
404.16	1970.00
404.62	3140.00
405.09	2339.00
405.55	1996.00
406.01	2083.00
406.47	2021.00
406.93	2020.00
407.40	2044.00
407.86	2003.00
408.32	2105.00
408.78	2097.00
409.24	2134.00
409.70	2207.00
410.17	2089.00
410.63	2058.00
411.09	2116.00
411.55	2114.00
412.01	2101.00
412.47	2254.00
412.94	2292.00
413.40	2288.00
413.86	2115.00
414.32	2094.00
414.78	2064.00
415.24	2073.00
415.71	2147.00
416.17	2114.00
416.63	2131.00
417.09	2107.00
417.55	2126.00
418.01	2575.00
418.47	2173.00
418.93	2209.00
419.40	2194.00
419.86	2180.00
420.32	2392.00
420.78	2242.00
421.24	2228.00
421.70	2220.00
422.16	2240.00
422.62	2254.00
423.08	2497.00
423.54	2275.00
424.01	2339.00
424.47	2245.00
424.93	2324.00
425.39	2970.00
425.85	2341.00
426.31	2266.00
426.77	2524.00
427.23	2454.00
427.69	2395.00
428.15	2347.00
428.61	2503.00
429.07	2563.00
429.53	2344.00
430.00	2380.00
430.46	2379.00
430.92	2400.00
431.38	2488.00
431.84	2514.00
432.30	2410.00
432.76	2498.00
433.22	2446.00
433.68	2727.00
434.14	2455.00
434.60	2659.00
435.06	2514.00
435.52	2567.00
435.98	2503.00
436.44	2532.00
436.90	2567.00
437.36	2641.00
437.82	2964.00
438.28	2640.00
438.74	2554.00
439.20	2615.00
439.66	2570.00
440.12	2643.00
440.58	2688.00
441.04	2668.00
441.50	2634.00
441.96	2649.00
442.42	2662.00
442.88	2807.00
443.34	2684.00
443.80	2650.00
444.26	2800.00
444.72	2695.00
445.18	2791.00
445.64	2797.00
446.10	2730.00
446.56	2741.00
447.02	2765.00
447.48	2766.00
447.94	2876.00
448.40	2912.00
448.86	3113.00
449.32	2762.00
449.77	2825.00
450.23	3210.00
450.69	2889.00
451.15	2961.00
451.61	2813.00
452.07	2842.00
452.53	3047.00
452.99	2927.00
453.45	3550.00
453.91	3137.00
454.37	3137.00
454.83	3054.00
455.29	2936.00
455.74	3009.00
456.20	3111.00
456.66	3100.00
457.12	2981.00
457.58	3121.00
458.04	3124.00
458.50	3163.00
458.96	3118.00
459.42	3261.00
459.88	3221.00
460.33	3244.00
460.79	3280.00
461.25	3298.00
461.71	3568.00
462.17	3474.00
462.63	3411.00
463.09	3534.00
463.54	3414.00
464.00	3468.00
464.46	3668.00
464.92	3643.00
465.38	3798.00
465.84	3537.00
466.30	3638.00
466.75	3700.00
467.21	3750.00
467.67	3748.00
468.13	3760.00
468.59	3999.00
469.05	4049.00
469.50	4084.00
469.96	4068.00
470.42	4207.00
470.88	4137.00
471.34	4150.00
471.80	4231.00
472.25	4264.00
472.71	4343.00
473.17	4456.00
473.63	4700.00
474.09	4572.00
474.54	4707.00
475.00	4550.00
475.46	4777.00
475.92	4957.00
476.38	4861.00
476.83	4899.00
477.29	4851.00
477.75	5617.00
478.21	5253.00
478.66	5160.00
479.12	5255.00
479.58	5260.00
480.04	6479.00
480.50	5672.00
480.95	6559.00
481.41	5690.00
481.87	6478.00
482.33	5780.00
482.78	5806.00
483.24	6478.00
483.70	5912.00
484.16	6005.00
484.61	6097.00
485.07	6199.00
485.53	6844.00
485.98	6316.00
486.44	6278.00
486.90	6456.00
487.36	6492.00
487.81	6602.00
488.27	6754.00
488.73	6640.00
489.18	6625.00
489.64	7003.00
490.10	6773.00
490.56	6919.00
491.01	6980.00
491.47	6980.00
491.93	7001.00
492.38	7055.00
492.84	7322.00
493.30	7098.00
493.75	7271.00
494.21	7273.00
494.67	7322.00
495.13	7382.00
495.58	7481.00
496.04	7496.00
496.50	7813.00
496.95	7703.00
497.41	7558.00
497.87	7792.00
498.32	7808.00
498.78	8021.00
499.23	7826.00
499.69	7907.00
500.15	7897.00
500.60	7992.00
501.06	7975.00
501.52	8946.00
501.97	8177.00
502.43	8114.00
502.89	8160.00
503.34	8293.00
503.80	8206.00
504.25	8306.00
504.71	8258.00
505.17	8393.00
505.62	8432.00
506.08	8429.00
506.54	8439.00
506.99	8759.00
507.45	8565.00
507.90	8620.00
508.36	8547.00
508.82	8660.00
509.27	8699.00
509.73	8690.00
510.18	8742.00
510.64	8688.00
511.10	8624.00
511.55	8792.00
512.01	8833.00
512.46	8720.00
512.92	8741.00
513.37	8733.00
513.83	8941.00
514.29	8884.00
514.74	8917.00
515.20	8892.00
515.65	9016.00
516.11	9012.00
516.56	9044.00
517.02	9382.00
517.47	9064.00
517.93	9032.00
518.39	9257.00
518.84	9073.00
519.30	9076.00
519.75	9309.00
520.21	9185.00
520.66	9402.00
521.12	9235.00
521.57	9153.00
522.03	9247.00
522.48	9244.00
522.94	9401.00
523.39	9392.00
523.85	9460.00
524.30	9529.00
524.76	9393.00
525.21	9463.00
525.67	9428.00
526.12	9933.00
526.58	9811.00
527.03	9564.00
527.49	9632.00
527.94	9675.00
528.40	9893.00
528.85	9829.00
529.31	9609.00
529.76	9649.00
530.22	9686.00
530.67	9821.00
531.13	9784.00
531.58	9900.00
532.03	9844.00
532.49	10083.00
532.94	9988.00
533.40	10014.00
533.85	10083.00
534.31	9978.00
534.76	9967.00
535.22	10072.00
535.67	10138.00
536.12	10071.00
536.58	10174.00
537.03	10162.00
537.49	10668.00
537.94	10874.00
538.40	10277.00
538.85	10227.00
539.30	10275.00
539.76	10349.00
540.21	10320.00
540.67	11016.00
541.12	10386.00
541.58	10437.00
542.03	10481.00
542.48	10516.00
542.94	10495.00
543.39	10597.00
543.84	11451.00
544.30	10895.00
544.75	10628.00
545.21	10688.00
545.66	10730.00
546.11	10832.00
546.57	10764.00
547.02	10768.00
547.48	10976.00
547.93	11033.00
548.38	10814.00
548.84	11238.00
549.29	11054.00
549.74	10936.00
550.20	11102.00
550.65	11020.00
551.10	11043.00
551.56	11166.00
552.01	11090.00
552.46	11051.00
552.92	11089.00
553.37	11686.00
553.82	11073.00
554.28	11283.00
554.73	11051.00
555.18	11261.00
555.64	11194.00
556.09	11159.00
556.54	11190.00
557.00	11196.00
557.45	11244.00
557.90	11804.00
558.36	11452.00
558.81	11161.00
559.26	11207.00
559.71	11324.00
560.17	11112.00
560.62	11232.00
561.07	11076.00
561.53	11232.00
561.98	11253.00
562.43	11186.00
562.88	11363.00
563.34	11758.00
563.79	11202.00
564.24	11210.00
564.70	11404.00
565.15	11516.00
565.60	11226.00
566.05	11162.00
566.51	11249.00
566.96	11128.00
567.41	11192.00
567.86	11293.00
568.32	11232.00
568.77	11270.00
569.22	11184.00
569.67	11217.00
570.12	11342.00
570.58	11302.00
571.03	11221.00
571.48	11283.00
571.93	11275.00
572.39	11237.00
572.84	11377.00
573.29	11990.00
573.74	11379.00
574.19	11340.00
574.65	11941.00
575.10	11407.00
575.55	11314.00
576.00	11263.00
576.45	11273.00
576.91	11276.00
577.36	11245.00
577.81	11349.00
578.26	11290.00
578.71	11752.00
579.17	11393.00
579.62	12063.00
580.07	11505.00
580.52	11400.00
580.97	11493.00
581.42	11381.00
581.88	11365.00
582.33	11364.00
582.78	11812.00
583.23	11515.00
583.68	11574.00
584.13	11537.00
584.59	11520.00
585.04	11544.00
585.49	11483.00
585.94	11602.00
586.39	11456.00
586.84	11437.00
587.29	11453.00
587.74	11588.00
588.20	11487.00
588.65	11586.00
589.10	11592.00
589.55	11571.00
590.00	11627.00
590.45	11574.00
590.90	11618.00
591.35	11790.00
591.81	11457.00
592.26	11287.00
592.71	11725.00
593.16	11501.00
593.61	12405.00
594.06	11721.00
594.51	11613.00
594.96	11713.00
595.41	11755.00
595.86	11746.00
596.31	11655.00
596.76	11682.00
597.22	11714.00
597.67	11559.00
598.12	11953.00
598.57	11954.00
599.02	11674.00
599.47	11668.00
599.92	11696.00
600.37	11802.00
600.82	11886.00
601.27	11600.00
601.72	11634.00
602.17	11690.00
602.62	11770.00
603.07	11704.00
603.52	11666.00
603.97	12126.00
604.42	11702.00
604.87	11676.00
605.32	11708.00
605.77	11672.00
606.22	11646.00
606.67	11774.00
607.12	11661.00
607.57	11621.00
608.02	11647.00
608.47	11703.00
608.92	11601.00
609.37	11684.00
609.82	11750.00
610.27	11610.00
610.72	11507.00
611.17	12402.00
611.62	11734.00
612.07	11813.00
612.52	11700.00
612.97	11835.00
613.42	11477.00
613.87	11448.00
614.32	11787.00
614.77	11568.00
615.22	11591.00
615.67	11629.00
616.12	11533.00
616.57	11557.00
617.02	11509.00
617.47	11504.00
617.92	11382.00
618.37	11414.00
618.82	11434.00
619.27	11392.00
619.72	11423.00
620.17	11310.00
620.62	11331.00
621.06	11227.00
621.51	11390.00
621.96	11566.00
622.41	11301.00
622.86	11249.00
623.31	11344.00
623.76	11564.00
624.21	11201.00
624.66	11159.00
625.11	11097.00
625.56	11098.00
626.00	11139.00
626.45	11129.00
626.90	11131.00
627.35	11164.00
627.80	11056.00
628.25	11014.00
628.70	11107.00
629.15	11013.00
629.60	10997.00
630.04	11037.00
630.49	10946.00
630.94	10943.00
631.39	11090.00
631.84	10921.00
632.29	11035.00
632.74	10976.00
633.18	10976.00
633.63	11003.00
634.08	10886.00
634.53	10883.00
634.98	10900.00
635.43	10838.00
635.88	10873.00
636.32	10785.00
636.77	11043.00
637.22	10945.00
637.67	10831.00
638.12	10800.00
638.56	11433.00
639.01	10935.00
639.46	10935.00
639.91	10955.00
640.36	10798.00
640.81	10838.00
641.25	10895.00
641.70	10657.00
642.15	10645.00
642.60	10687.00
643.05	10744.00
643.49	10787.00
643.94	10700.00
644.39	10623.00
644.84	10684.00
645.28	10642.00
645.73	10742.00
646.18	10564.00
646.63	10688.00
647.08	10610.00
647.52	10615.00
647.97	10580.00
648.42	11269.00
648.87	10606.00
649.31	11361.00
649.76	10588.00
650.21	10658.00
650.66	10829.00
651.10	10552.00
651.55	10529.00
652.00	10477.00
652.45	10606.00
652.89	10501.00
653.34	10503.00
653.79	10409.00
654.24	10425.00
654.68	10379.00
655.13	10544.00
655.58	10410.00
656.02	10439.00
656.47	10452.00
656.92	10618.00
657.37	10453.00
657.81	10412.00
658.26	10258.00
658.71	10300.00
659.15	10341.00
659.60	10271.00
660.05	10164.00
660.49	10164.00
660.94	10224.00
661.39	10126.00
661.83	11595.00
662.28	10109.00
662.73	10053.00
663.17	10100.00
663.62	10207.00
664.07	10165.00
664.51	10055.00
664.96	9908.00
665.41	10119.00
665.85	9887.00
666.30	10025.00
666.75	9900.00
667.19	9840.00
667.64	9893.00
668.09	9893.00
668.53	9821.00
668.98	9822.00
669.43	9680.00
669.87	9979.00
670.32	9605.00
670.76	9617.00
671.21	9609.00
671.66	9527.00
672.10	9571.00
672.55	9722.00
673.00	9470.00
673.44	9436.00
673.89	9820.00
674.33	9426.00
674.78	10192.00
675.23	9449.00
675.67	9313.00
676.12	9173.00
676.56	9326.00
677.01	9216.00
677.46	9158.00
677.90	9247.00
678.35	9262.00
678.79	9150.00
679.24	9002.00
679.68	9101.00
680.13	9166.00
680.58	9895.00
681.02	8944.00
681.47	8947.00
681.91	8867.00
682.36	8879.00
682.80	9012.00
683.25	8803.00
683.69	8815.00
684.14	8758.00
684.59	8691.00
685.03	8594.00
685.48	8660.00
685.92	8629.00
686.37	8676.00
686.81	8605.00
687.26	8579.00
687.70	8508.00
688.15	8490.00
688.59	8572.00
689.04	8632.00
689.48	8421.00
689.93	8436.00
690.37	8318.00
690.82	8349.00
691.26	8444.00
691.71	8423.00
692.15	8549.00
692.60	8267.00
693.04	8230.00
693.49	8182.00
693.93	8083.00
694.38	8183.00
694.82	8076.00
695.27	7988.00
695.71	7997.00
696.16	8067.00
696.60	8041.00
697.05	8121.00
697.49	8037.00
697.93	8446.00
698.38	7980.00
698.82	7905.00
699.27	7948.00
699.71	7960.00
700.16	7950.00
700.60	7809.00
701.05	7862.00
701.49	7932.00
701.93	7773.00
702.38	7755.00
702.82	7752.00
703.27	7796.00
703.71	7848.00
704.16	7786.00
704.60	7578.00
705.04	7574.00
705.49	7584.00
705.93	7584.00
706.38	7736.00
706.82	7639.00
707.26	7561.00
707.71	7497.00
708.15	7636.00
708.60	7398.00
709.04	7410.00
709.48	7465.00
709.93	7803.00
710.37	7482.00
710.82	7357.00
711.26	7436.00
711.70	7906.00
712.15	7282.00
712.59	7287.00
713.03	7308.00
713.48	7386.00
713.92	7201.00
714.37	7153.00
714.81	8101.00
715.25	7120.00
715.70	7581.00
716.14	7174.00
716.58	7066.00
717.03	6941.00
717.47	6960.00
717.91	6941.00
718.36	6838.00
718.80	6943.00
719.24	6869.00
719.69	6992.00
720.13	6710.00
720.57	6698.00
721.02	6625.00
721.46	6631.00
721.90	6680.00
722.35	6669.00
722.79	6500.00
723.23	6554.00
723.67	6568.00
724.12	6505.00
724.56	6903.00
725.00	6512.00
725.45	6440.00
725.89	6413.00
726.33	6519.00
726.77	6831.00
727.22	6526.00
727.66	6464.00
728.10	6378.00
728.55	6337.00
728.99	6326.00
729.43	6275.00
729.87	7558.00
730.32	6500.00
730.76	6685.00
731.20	6295.00
731.64	6278.00
732.09	6229.00
732.53	6183.00
732.97	6279.00
733.41	6234.00
733.86	6167.00
734.30	6206.00
734.74	6218.00
